# Dihedral Angles [Degree]
           0.48  98.9905181
           0.97  98.5334827
           1.45  98.0820137
           1.94  97.6300548
           2.42  97.1739502
           2.90  96.7100369
           3.39  96.2333076
           3.87  95.7374509
           4.35  95.2188205
           4.84  94.6898539
           5.32  94.1824023
           5.81  93.7286843
           6.29  93.3416901
           6.77  93.0119244
           7.26  92.7164810
           7.74  92.4215096
           8.22  92.0682357
           8.71  91.5911528
           9.19  91.0177349
           9.68  90.4588142
